;  Optical constants for Au
;  
;  Concatenation of:
; 
;  Au_llnl_cxro + Au_palik
;   
;    Lambda (A)            n            k
;-----------------------------------------
      0.12398425       0.99999968    9.2453537e-09
      0.12423272       0.99999968    9.3128213e-09
      0.12460729       0.99999968    9.4148805e-09
      0.12523662       0.99999968    9.5884077e-09
      0.12587234       0.99999967    9.7665349e-09
      0.12612843       0.99999967    9.8386795e-09
      0.12651454       0.99999967    9.9478498e-09
      0.12690302       0.99999967    1.0059841e-08
      0.12742472       0.99999967    1.0211022e-08
      0.12795072       0.99999966    1.0364361e-08
      0.12848109       0.99999966    1.0519897e-08
      0.12888176       0.99999966    1.0640214e-08
      0.12941989       0.99999966    1.0802635e-08
      0.12996253       0.99999965    1.0967457e-08
      0.13050974       0.99999965    1.1134632e-08
      0.13078507       0.99999965    1.1221217e-08
      0.13120026       0.99999965    1.1352306e-08
      0.13147853       0.99999964    1.1440485e-08
      0.13189814       0.99999964    1.1573993e-08
      0.13217937       0.99999964    1.1664960e-08
      0.13260348       0.99999964    1.1802720e-08
      0.13288773       0.99999964    1.1895380e-08
      0.13331640       0.99999964    1.2035710e-08
      0.13374784       0.99999963    1.2179126e-08
      0.13432746       0.99999963    1.2372812e-08
      0.13491213       0.99999963    1.2569463e-08
      0.13550191       0.99999962    1.2769039e-08
      0.13594764       0.99999962    1.2922259e-08
      0.13654653       0.99999962    1.3129260e-08
      0.13715072       0.99999961    1.3339477e-08
      0.13776028       0.99999961    1.3552870e-08
      0.13806709       0.99999961    1.3660416e-08
      0.13852989       0.99999961    1.3823262e-08
      0.13884015       0.99999961    1.3932838e-08
      0.13930815       0.99999960    1.4098893e-08
      0.13962190       0.99999960    1.4210599e-08
      0.14009520       0.99999960    1.4379836e-08
      0.14041251       0.99999960    1.4493775e-08
      0.14089119       0.99999959    1.4666324e-08
      0.14121213       0.99999959    1.4783238e-08
      0.14169629       0.99999959    1.4960302e-08
      0.14202090       0.99999959    1.5079522e-08
      0.14251063       0.99999959    1.5260088e-08
      0.14283900       0.99999958    1.5385725e-08
      0.14333439       0.99999958    1.5576057e-08
      0.14366657       0.99999958    1.5705030e-08
      0.14416773       0.99999958    1.5900456e-08
      0.14450379       0.99999958    1.6038112e-08
      0.14501082       0.99999957    1.6246661e-08
      0.14535082       0.99999957    1.6388132e-08
      0.14586382       0.99999957    1.6602529e-08
      0.14603563       0.99999957    1.6676969e-08
      0.14620784       0.99999957    1.6751714e-08
      0.14646692       0.99999957    1.6864379e-08
      0.14672692       0.99999956    1.6977796e-08
      0.14690077       0.99999956    1.7049776e-08
      0.14707503       0.99999956    1.7122108e-08
      0.14733720       0.99999956    1.7231102e-08
      0.14760030       0.99999956    1.7340767e-08
      0.14786434       0.99999956    1.7444099e-08
      0.14812933       0.99999956    1.7548003e-08
      0.14830652       0.99999956    1.7618207e-08
      0.14848413       0.99999956    1.7688697e-08
      0.14866217       0.99999955    1.7759533e-08
      0.14884064       0.99999955    1.7830600e-08
      0.14901953       0.99999955    1.7903134e-08
      0.14919886       0.99999955    1.7975966e-08
      0.14937861       0.99999955    1.8050043e-08
      0.14955881       0.99999955    1.8124484e-08
      0.14973943       0.99999955    1.8207785e-08
      0.14992050       0.99999955    1.8291377e-08
      0.15010200       0.99999955    1.8375618e-08
      0.15028394       0.99999955    1.8460215e-08
      0.15042981       0.99999955    1.8526698e-08
      0.15055768       0.99999955    1.8585107e-08
      0.15068577       0.99999955    1.8643628e-08
      0.15083242       0.99999954    1.8710729e-08
      0.15101614       0.99999954    1.8784548e-08
      0.15110817       0.99999954    1.8821541e-08
      0.15120030       0.99999954    1.8858611e-08
      0.15129256       0.99999954    1.8897030e-08
      0.15138492       0.99999954    1.8935590e-08
      0.15147740       0.99999954    1.8974230e-08
      0.15156999       0.99999954    1.9012890e-08
      0.15166269       0.99999954    1.9058819e-08
      0.15175551       0.99999954    1.9104908e-08
      0.15184844       0.99999954    1.9151034e-08
      0.15194148       0.99999954    1.9197320e-08
      0.15203464       0.99999954    1.9238624e-08
      0.15209059       0.99999954    1.9263447e-08
      0.15212791       0.99999954    1.9280014e-08
      0.15218393       0.99999954    1.9304890e-08
      0.15222130       0.99999954    1.9321492e-08
      0.15227739       0.99999954    1.9346420e-08
      0.15231480       0.99999954    1.9363056e-08
      0.15235224       0.99999954    1.9376817e-08
      0.15240842       0.99999954    1.9397572e-08
      0.15246465       0.99999954    1.9418290e-08
      0.15250215       0.99999954    1.9432096e-08
      0.15255845       0.99999954    1.9461302e-08
      0.15259600       0.99999954    1.9480753e-08
      0.15261478       0.99999954    1.9491657e-08
      0.15263357       0.99999954    1.9502566e-08
      0.15266176       0.99999954    1.9518907e-08
      0.15268996       0.99999954    1.9535320e-08
      0.15270877       0.99999954    1.9534141e-08
      0.15272758       0.99999954    1.9533023e-08
      0.15275581       0.99999954    1.9526769e-08
      0.15278404       0.99999954    1.9520447e-08
      0.15280287       0.99999954    1.9530021e-08
      0.15281229       0.99999954    1.9534779e-08
      0.15282171       0.99999954    1.9539599e-08
      0.15283489       0.99999954    1.9556584e-08
      0.15284997       0.99999954    1.9575974e-08
      0.15286316       0.99999954    1.9593713e-08
      0.15287824       0.99999955    1.9613985e-08
      0.15289143       0.99999955    1.9622696e-08
      0.15290652       0.99999955    1.9617093e-08
      0.15291972       0.99999955    1.9593412e-08
      0.15293481       0.99999955    1.9542202e-08
      0.15294424       0.99999955    1.9498018e-08
      0.15295368       0.99999955    1.9447378e-08
      0.15296311       0.99999955    1.9394928e-08
      0.15297255       0.99999955    1.9348602e-08
      0.15298199       0.99999955    1.9318506e-08
      0.15298576       0.99999955    1.9317971e-08
      0.15299142       0.99999955    1.9317170e-08
      0.15299520       0.99999955    1.9334926e-08
      0.15300086       0.99999955    1.9361594e-08
      0.15300464       0.99999955    1.9406391e-08
      0.15300747       0.99999955    1.9440410e-08
      0.15301030       0.99999955    1.9474122e-08
      0.15301219       0.99999955    1.9515037e-08
      0.15301408       0.99999955    1.9555769e-08
      0.15301691       0.99999955    1.9617955e-08
      0.15301975       0.99999955    1.9679711e-08
      0.15302258       0.99999955    1.9783649e-08
      0.15302541       0.99999955    1.9887656e-08
      0.15302825       0.99999955    1.9992664e-08
      0.15303108       0.99999955    2.0097803e-08
      0.15303391       0.99999955    2.0258471e-08
      0.15303675       0.99999955    2.0418220e-08
      0.15303958       0.99999955    2.0581641e-08
      0.15304241       0.99999955    2.0783477e-08
      0.15304525       0.99999956    2.1007912e-08
      0.15304808       0.99999956    2.1233667e-08
      0.15305016       0.99999956    2.1391931e-08
      0.15305205       0.99999956    1.4922923e-08
      0.15305526       0.99999956    9.0292822e-09
      0.15305677       0.99999955    4.4693641e-09
      0.15305753       0.99999955    4.0407823e-09
      0.15305828       0.99999955    4.0408593e-09
      0.15305979       0.99999956    6.3040894e-08
      0.15306131       0.99999957    3.3599410e-08
      0.15306206       0.99999957    1.8878231e-08
      0.15306244       0.99999958    1.1373235e-08
      0.15306263       0.99999958    7.6207074e-09
      0.15306282       0.99999958    4.1567810e-09
      0.15306282       0.99999958    4.1567810e-09
      0.15306490       0.99999957    4.0415251e-09
      0.15306698       0.99999957    4.0417343e-09
      0.15306981       0.99999956    4.0420143e-09
      0.15307264       0.99999956    4.0423006e-09
      0.15307548       0.99999956    4.0425868e-09
      0.15307831       0.99999956    4.0428731e-09
      0.15308115       0.99999956    4.0431532e-09
      0.15308398       0.99999956    4.0434395e-09
      0.15308587       0.99999955    4.0436263e-09
      0.15308777       0.99999955    4.0438193e-09
      0.15309060       0.99999955    4.0440994e-09
      0.15309344       0.99999955    4.0443858e-09
      0.15309627       0.99999955    4.0446722e-09
      0.15309911       0.99999955    4.0449587e-09
      0.15310194       0.99999955    4.0452389e-09
      0.15310478       0.99999955    4.0455254e-09
      0.15310856       0.99999955    4.0459053e-09
      0.15311234       0.99999955    4.0462852e-09
      0.15311612       0.99999955    4.0466652e-09
      0.15311991       0.99999955    4.0470452e-09
      0.15312558       0.99999955    4.0476122e-09
      0.15313314       0.99999955    4.0483724e-09
      0.15313882       0.99999955    4.0489395e-09
      0.15314638       0.99999955    4.0497000e-09
      0.15315395       0.99999955    4.0504605e-09
      0.15316152       0.99999955    4.0512212e-09
      0.15316909       0.99999955    4.0519758e-09
      0.15317476       0.99999955    4.0525497e-09
      0.15318233       0.99999955    4.0533107e-09
      0.15318991       0.99999955    4.0540657e-09
      0.15320316       0.99999954    4.0554012e-09
      0.15321830       0.99999954    4.0569182e-09
      0.15322777       0.99999954    4.0578674e-09
      0.15323724       0.99999954    4.0588230e-09
      0.15325618       0.99999954    4.0607223e-09
      0.15327513       0.99999954    4.0626287e-09
      0.15329408       0.99999954    4.0645297e-09
      0.15332251       0.99999954    4.0673890e-09
      0.15335096       0.99999954    4.0702501e-09
      0.15336993       0.99999954    4.0721606e-09
      0.15338890       0.99999954    4.0740657e-09
      0.15341737       0.99999954    4.0769311e-09
      0.15344585       0.99999954    4.0797983e-09
      0.15348385       0.99999954    4.0836221e-09
      0.15352185       0.99999954    4.0874492e-09
      0.15355037       0.99999954    4.0903232e-09
      0.15357890       0.99999954    4.0931928e-09
      0.15361696       0.99999954    4.0970344e-09
      0.15365504       0.99999953    4.1008730e-09
      0.15369313       0.99999953    4.1047149e-09
      0.15373125       0.99999953    4.1085601e-09
      0.15378845       0.99999953    4.1143311e-09
      0.15386479       0.99999953    4.1220477e-09
      0.15394121       0.99999953    4.1297713e-09
      0.15401770       0.99999953    4.1375082e-09
      0.15407512       0.99999953    4.1433669e-09
      0.15411342       0.99999953    4.1472831e-09
      0.15420927       0.99999953    4.1570728e-09
      0.15430523       0.99999953    4.1668900e-09
      0.15440131       0.99999953    4.1767221e-09
      0.15447826       0.99999953    4.1846031e-09
      0.15453602       0.99999953    4.1905292e-09
      0.15461311       0.99999952    4.1984341e-09
      0.15469027       0.99999952    4.2063527e-09
      0.15482549       0.99999952    4.2202496e-09
      0.15490286       0.99999952    4.2282124e-09
      0.15498031       0.99999952    4.2361826e-09
      0.15513545       0.99999952    4.2523814e-09
      0.15527145       0.99999952    4.2666032e-09
      0.15540768       0.99999952    4.2808684e-09
      0.15556368       0.99999952    4.2972230e-09
      0.15575911       0.99999951    4.3177434e-09
      0.15595503       0.99999951    4.3383599e-09
      0.15615145       0.99999951    4.3590602e-09
      0.15634836       0.99999951    4.3798577e-09
      0.15648650       0.99999951    4.3944695e-09
      0.15664466       0.99999951    4.4112218e-09
      0.15678332       0.99999951    4.4259299e-09
      0.15694209       0.99999951    4.4427928e-09
      0.15714100       0.99999950    4.4639515e-09
      0.15734042       0.99999950    4.4852099e-09
      0.15754034       0.99999950    4.5065554e-09
      0.15774078       0.99999950    4.5280018e-09
      0.15804238       0.99999950    4.5611330e-09
      0.15834515       0.99999950    4.5944785e-09
      0.15875064       0.99999949    4.6392947e-09
      0.15915822       0.99999949    4.6845045e-09
      0.15956789       0.99999949    4.7301256e-09
      0.15997968       0.99999948    4.7761491e-09
      0.16039360       0.99999948    4.8225930e-09
      0.16078881       0.99999948    4.8670966e-09
      0.16099760       0.99999948    4.8911972e-09
      0.16122789       0.99999947    4.9178281e-09
      0.16185933       0.99999947    4.9911428e-09
      0.16249574       0.99999947    5.0654608e-09
      0.16313717       0.99999946    5.1407989e-09
      0.16356761       0.99999946    5.1922989e-09
      0.16421755       0.99999945    5.2704460e-09
      0.16487267       0.99999945    5.3503901e-09
      0.16540055       0.99999944    5.4151482e-09
      0.16619873       0.99999944    5.5153890e-09
      0.16709468       0.99999943    5.6287663e-09
      0.16777300       0.99999943    5.7151939e-09
      0.16868605       0.99999942    5.8323424e-09
      0.16937739       0.99999942    5.9240404e-09
      0.17030804       0.99999941    6.0483615e-09
      0.17124896       0.99999940    6.1750682e-09
      0.17220035       0.99999940    6.3042329e-09
      0.17268001       0.99999939    6.3712413e-09
      0.17340455       0.99999939    6.4729815e-09
      0.17462570       0.99999938    6.6458750e-09
      0.17586418       0.99999937    6.8263247e-09
      0.17712036       0.99999936    7.0112703e-09
      0.17839460       0.99999935    7.2042309e-09
      0.17968732       0.99999934    7.4020771e-09
      0.18099891       0.99999933    7.6088149e-09
      0.18232978       0.99999932    7.8208551e-09
      0.18395289       0.99999931    8.0865630e-09
      0.18477534       0.99999930    8.2240663e-09
      0.18552185       0.99999930    8.3496568e-09
      0.18813998       0.99999928    8.8026043e-09
      0.19074500       0.99999926    9.2709502e-09
      0.19372539       0.99999923    9.8283535e-09
      0.19680040       0.99999921    1.0428903e-08
      0.19901164       0.99999919    1.0877017e-08
      0.20160041       0.99999917    1.1419564e-08
      0.20392146       0.99999915    1.1922500e-08
      0.20664042       0.99999912    1.2532330e-08
      0.20733152       0.99999912    1.2690537e-08
      0.20823690       0.99999911    1.2899934e-08
      0.21193889       0.99999908    1.3782795e-08
      0.21376595       0.99999906    1.4234485e-08
      0.21551234       0.99999905    1.4676300e-08
      0.21828213       0.99999902    1.5397615e-08
      0.22140045       0.99999899    1.6240338e-08
      0.22542591       0.99999895    1.7377646e-08
      0.22960046       0.99999891    1.8614115e-08
      0.23393255       0.99999887    1.9964154e-08
      0.23843125       0.99999883    2.1440511e-08
      0.24310637       0.99999878    2.3058207e-08
      0.24796850       0.99999873    2.4833599e-08
      0.24946529       0.99999872    2.5398716e-08
      0.25098026       0.99999870    2.5980109e-08
      0.25406609       0.99999867    2.7194651e-08
      0.25722873       0.99999863    2.8481973e-08
      0.26007117       0.99999860    2.9676578e-08
      0.26267850       0.99999858    3.0804266e-08
      0.26492361       0.99999855    3.1800083e-08
      0.26720744       0.99999853    3.2837155e-08
      0.26953098       0.99999850    3.3917578e-08
      0.27369592       0.99999845    3.5918788e-08
      0.27861629       0.99999840    3.8388551e-08
      0.28306906       0.99999834    4.0726304e-08
      0.28833547       0.99999828    4.3623783e-08
      0.29310697       0.99999822    4.6376437e-08
      0.29875723       0.99999815    4.9798105e-08
      0.30388297       0.99999809    5.3058869e-08
      0.30996062       0.99999801    5.7124338e-08
      0.31388418       0.99999796    5.9859740e-08
      0.31790833       0.99999791    6.2763318e-08
      0.32203701       0.99999785    6.5848240e-08
      0.32627434       0.99999779    6.9127874e-08
      0.33062467       0.99999773    7.2608820e-08
      0.33509257       0.99999767    7.6315516e-08
      0.33968288       0.99999761    8.0265477e-08
      0.34411393       0.99999754    8.4218469e-08
      0.34729482       0.99999750    8.7142373e-08
      0.35123017       0.99999744    9.0861629e-08
      0.35525573       0.99999738    9.4781294e-08
      0.35937464       0.99999732    9.8908628e-08
      0.36359018       0.99999726    1.0326700e-07
      0.36681731       0.99999721    1.0669681e-07
      0.37121033       0.99999714    1.1149825e-07
      0.37570985       0.99999707    1.1657769e-07
      0.38031979       0.99999700    1.2194987e-07
      0.38385217       0.99999694    1.2618728e-07
      0.38866536       0.99999686    1.3213222e-07
      0.39360079       0.99999678    1.3843760e-07
      0.39738542       0.99999672    1.4341911e-07
      0.40254627       0.99999663    1.5042157e-07
      0.40784293       0.99999654    1.5786430e-07
      0.41328083       0.99999645    1.6403257e-07
      0.41996528       0.99999633    1.7408797e-07
      0.42675785       0.99999621    1.8475356e-07
      0.43365996       0.99999608    1.9606433e-07
      0.44067464       0.99999596    2.0806019e-07
      0.44780188       0.99999582    2.2078045e-07
      0.45504485       0.99999569    2.3426803e-07
      0.46240522       0.99999555    2.4856897e-07
      0.46988471       0.99999540    2.6373080e-07
      0.47748323       0.99999525    2.7980150e-07
      0.48520618       0.99999510    2.9683874e-07
      0.49305362       0.99999494    3.1489578e-07
      0.50102946       0.99999477    3.3403554e-07
      0.50913375       0.99999460    3.5431802e-07
      0.51736847       0.99999443    3.7580970e-07
      0.52573570       0.99999425    3.9857928e-07
      0.53423986       0.99999406    4.2270587e-07
      0.54288101       0.99999387    4.4826152e-07
      0.55166142       0.99999367    4.7533103e-07
      0.56058349       0.99999347    5.0399830e-07
      0.56964967       0.99999326    5.3435686e-07
      0.57886523       0.99999305    5.6650826e-07
      0.58822755       0.99999282    6.0054213e-07
      0.59774203       0.99999259    6.3657338e-07
      0.60740863       0.99999236    6.7470686e-07
      0.61723320       0.99999212    7.1506786e-07
      0.62721577       0.99999187    7.5777504e-07
      0.63736268       0.99999161    8.0296846e-07
      0.64767070       0.99999135    8.5076920e-07
      0.65814639       0.99999108    9.0133065e-07
      0.66878971       0.99999080    9.5479760e-07
      0.67960781       0.99999051    1.0113403e-06
      0.69060079       0.99999022    1.0711162e-06
      0.70176851       0.99998992    1.1342911e-06
      0.71312284       0.99998961    1.2010773e-06
      0.72465574       0.99998930    1.2716258e-06
      0.73637533       0.99998897    1.3461565e-06
      0.74828597       0.99998865    1.4248821e-06
      0.76038766       0.99998831    1.5080090e-06
      0.77268974       0.99998797    1.5957934e-06
      0.78518752       0.99998763    1.6884305e-06
      0.79788566       0.99998728    1.7861971e-06
      0.81078912       0.99998693    1.8893275e-06
      0.82390321       0.99998659    1.9981209e-06
      0.83722795       0.99998626    2.1128288e-06
      0.85077472       0.99998596    2.2338090e-06
      0.86382717       0.99998630    2.3549781e-06
      0.86383921       0.99998630    2.0492064e-06
