;Updated optical constants for B4C, density =2.28 g/cm3
;R. Soufli et al "Optical constants of magnetron sputtered 
;boron carbide thin films from photoabsorption data in the range 30 to 770 eV" 
;Applied Optics 47, 4633-39 (2008).
;Combined with Blumenstock et al data (6-30 eV) and CXRO data (> 770 eV)
;
;
;Lambda (A)	n	k
;---------------------------------------------
0.413267	1	1.50E-10
0.416307	0.999999	1.51E-10
0.41937	0.999999	1.53E-10
0.422454	0.999999	1.55E-10
0.425563	0.999999	1.57E-10
0.428692	0.999999	1.59E-10
0.431846	0.999999	1.61E-10
0.435024	0.999999	1.63E-10
0.438223	0.999999	1.65E-10
0.441447	0.999999	1.67E-10
0.444695	0.999999	1.69E-10
0.447966	0.999999	1.72E-10
0.451261	0.999999	1.74E-10
0.45458	0.999999	1.76E-10
0.457925	0.999999	1.79E-10
0.461293	0.999999	1.81E-10
0.464687	0.999999	1.84E-10
0.468105	0.999999	1.86E-10
0.471548	0.999999	1.89E-10
0.475017	0.999999	1.92E-10
0.478512	0.999999	1.94E-10
0.482032	0.999999	1.97E-10
0.485577	0.999999	2.00E-10
0.48915	0.999999	2.03E-10
0.492749	0.999999	2.06E-10
0.496373	0.999999	2.09E-10
0.500024	0.999999	2.12E-10
0.503703	0.999999	2.15E-10
0.507408	0.999999	2.19E-10
0.511142	0.999999	2.22E-10
0.514901	0.999999	2.26E-10
0.518688	0.999999	2.29E-10
0.522505	0.999999	2.33E-10
0.526349	0.999999	2.37E-10
0.530221	0.999999	2.40E-10
0.53412	0.999999	2.44E-10
0.538049	0.999999	2.48E-10
0.542008	0.999999	2.53E-10
0.545997	0.999999	2.57E-10
0.550013	0.999999	2.61E-10
0.554058	0.999999	2.66E-10
0.558134	0.999999	2.70E-10
0.56224	0.999999	2.75E-10
0.566375	0.999999	2.80E-10
0.570542	0.999999	2.85E-10
0.57474	0.999999	2.90E-10
0.578967	0.999999	2.96E-10
0.583227	0.999999	3.01E-10
0.587516	0.999999	3.07E-10
0.591838	0.999999	3.12E-10
0.596192	0.999999	3.18E-10
0.600579	0.999999	3.24E-10
0.604996	0.999999	3.30E-10
0.609448	0.999999	3.37E-10
0.61393	0.999999	3.43E-10
0.618447	0.999999	3.50E-10
0.622996	0.999999	3.57E-10
0.627578	0.999999	3.64E-10
0.632196	0.999999	3.71E-10
0.636846	0.999999	3.78E-10
0.641532	0.999999	3.86E-10
0.646251	0.999999	3.94E-10
0.651005	0.999999	4.02E-10
0.655795	0.999999	4.10E-10
0.660617	0.999999	4.18E-10
0.665479	0.999999	4.27E-10
0.670372	0.999999	4.36E-10
0.675305	0.999999	4.45E-10
0.680274	0.999999	4.55E-10
0.685275	0.999999	4.65E-10
0.690319	0.999999	4.75E-10
0.695396	0.999999	4.85E-10
0.700511	0.999999	4.96E-10
0.705667	0.999999	5.07E-10
0.710858	0.999999	5.18E-10
0.716084	0.999999	5.30E-10
0.721355	0.999998	5.42E-10
0.726661	0.999998	5.54E-10
0.732007	0.999998	5.67E-10
0.737388	0.999998	5.80E-10
0.742813	0.999998	5.94E-10
0.748278	0.999998	6.08E-10
0.753783	0.999998	6.22E-10
0.759328	0.999998	6.37E-10
0.764917	0.999998	6.52E-10
0.770541	0.999998	6.68E-10
0.776209	0.999998	6.84E-10
0.781922	0.999998	7.01E-10
0.78767	0.999998	7.18E-10
0.793467	0.999998	7.35E-10
0.799304	0.999998	7.54E-10
0.805185	0.999998	7.72E-10
0.811106	0.999998	7.92E-10
0.817072	0.999998	8.11E-10
0.823082	0.999998	8.32E-10
0.829137	0.999998	8.53E-10
0.835236	0.999998	8.75E-10
0.841381	0.999998	8.97E-10
0.84757	0.999998	9.20E-10
0.85381	0.999998	9.44E-10
0.860088	0.999998	9.68E-10
0.866417	0.999998	9.93E-10
0.872791	0.999998	1.02E-09
0.87921	0.999998	1.05E-09
0.885679	0.999998	1.07E-09
0.892193	0.999998	1.10E-09
0.898758	0.999998	1.13E-09
0.905367	0.999998	1.16E-09
0.912027	0.999998	1.19E-09
0.918738	0.999997	1.22E-09
0.925493	0.999997	1.26E-09
0.932307	0.999997	1.29E-09
0.939164	0.999997	1.33E-09
0.946073	0.999997	1.36E-09
0.953032	0.999997	1.40E-09
0.960043	0.999997	1.44E-09
0.967105	0.999997	1.48E-09
0.974218	0.999997	1.52E-09
0.981382	0.999997	1.56E-09
0.988605	0.999997	1.60E-09
0.995879	0.999997	1.65E-09
1.0032	0.999997	1.69E-09
1.01058	0.999997	1.74E-09
1.01802	0.999997	1.79E-09
1.02551	0.999997	1.84E-09
1.03305	0.999997	1.89E-09
1.04065	0.999997	1.95E-09
1.04831	0.999997	2.00E-09
1.05601	0.999997	2.06E-09
1.06379	0.999997	2.12E-09
1.07161	0.999997	2.18E-09
1.07949	0.999997	2.24E-09
1.08744	0.999997	2.31E-09
1.09543	0.999996	2.37E-09
1.1035	0.999996	2.44E-09
1.11161	0.999996	2.51E-09
1.11979	0.999996	2.58E-09
1.12802	0.999996	2.66E-09
1.13633	0.999996	2.74E-09
1.14468	0.999996	2.82E-09
1.1531	0.999996	2.90E-09
1.16159	0.999996	2.98E-09
1.17013	0.999996	3.07E-09
1.17874	0.999996	3.16E-09
1.18741	0.999996	3.25E-09
1.19614	0.999996	3.35E-09
1.20494	0.999996	3.45E-09
1.21381	0.999996	3.55E-09
1.22274	0.999996	3.66E-09
1.23173	0.999996	3.76E-09
1.24079	0.999995	3.88E-09
1.24992	0.999995	3.99E-09
1.25912	0.999995	4.11E-09
1.26838	0.999995	4.23E-09
1.27771	0.999995	4.36E-09
1.28711	0.999995	4.49E-09
1.29658	0.999995	4.62E-09
1.30611	0.999995	4.76E-09
1.31572	0.999995	4.90E-09
1.3254	0.999995	5.05E-09
1.33515	0.999995	5.20E-09
1.34497	0.999995	5.35E-09
1.35487	0.999995	5.51E-09
1.36484	0.999995	5.68E-09
1.37487	0.999994	5.85E-09
1.38499	0.999994	6.03E-09
1.39518	0.999994	6.21E-09
1.40544	0.999994	6.40E-09
1.41578	0.999994	6.59E-09
1.4262	0.999994	6.79E-09
1.43669	0.999994	6.99E-09
1.44726	0.999994	7.20E-09
1.4579	0.999994	7.42E-09
1.46863	0.999994	7.65E-09
1.47943	0.999994	7.88E-09
1.49031	0.999994	8.12E-09
1.50128	0.999993	8.36E-09
1.51232	0.999993	8.61E-09
1.52345	0.999993	8.88E-09
1.53465	0.999993	9.14E-09
1.54594	0.999993	9.42E-09
1.55731	0.999993	9.71E-09
1.56877	0.999993	1.00E-08
1.58031	0.999993	1.03E-08
1.59194	0.999993	1.06E-08
1.60365	0.999992	1.09E-08
1.61544	0.999992	1.13E-08
1.62733	0.999992	1.16E-08
1.6393	0.999992	1.20E-08
1.65136	0.999992	1.23E-08
1.66351	0.999992	1.27E-08
1.67574	0.999992	1.31E-08
1.68807	0.999992	1.35E-08
1.70049	0.999991	1.39E-08
1.713	0.999991	1.43E-08
1.7256	0.999991	1.48E-08
1.73829	0.999991	1.52E-08
1.75108	0.999991	1.57E-08
1.76396	0.999991	1.62E-08
1.77694	0.999991	1.67E-08
1.79001	0.999991	1.72E-08
1.80318	0.99999	1.77E-08
1.81644	0.99999	1.82E-08
1.82981	0.99999	1.88E-08
1.84327	0.99999	1.94E-08
1.85683	0.99999	2.00E-08
1.87049	0.99999	2.06E-08
1.88425	0.99999	2.12E-08
1.89811	0.999989	2.18E-08
1.91207	0.999989	2.25E-08
1.92614	0.999989	2.32E-08
1.9403	0.999989	2.39E-08
1.95458	0.999989	2.46E-08
1.96896	0.999989	2.54E-08
1.98344	0.999988	2.62E-08
1.99803	0.999988	2.70E-08
2.01273	0.999988	2.78E-08
2.02754	0.999988	2.86E-08
2.04245	0.999988	2.95E-08
2.05748	0.999988	3.04E-08
2.07261	0.999987	3.13E-08
2.08786	0.999987	3.23E-08
2.10322	0.999987	3.33E-08
2.11869	0.999987	3.43E-08
2.13428	0.999987	3.54E-08
2.14998	0.999986	3.64E-08
2.16579	0.999986	3.76E-08
2.18172	0.999986	3.87E-08
2.19777	0.999986	3.99E-08
2.21394	0.999986	4.11E-08
2.23023	0.999985	4.24E-08
2.24664	0.999985	4.37E-08
2.26316	0.999985	4.50E-08
2.27981	0.999985	4.64E-08
2.29658	0.999984	4.78E-08
2.31348	0.999984	4.92E-08
2.33049	0.999984	5.07E-08
2.34764	0.999984	5.23E-08
2.36491	0.999984	5.39E-08
2.38231	0.999983	5.55E-08
2.39983	0.999983	5.72E-08
2.41748	0.999983	5.90E-08
2.43527	0.999983	6.08E-08
2.45318	0.999982	6.26E-08
2.47123	0.999982	6.45E-08
2.48941	0.999982	6.65E-08
2.50772	0.999981	6.85E-08
2.52617	0.999981	7.06E-08
2.54476	0.999981	7.28E-08
2.56347	0.999981	7.50E-08
2.58233	0.99998	7.73E-08
2.60133	0.99998	7.96E-08
2.62047	0.99998	8.21E-08
2.63974	0.999979	8.46E-08
2.65916	0.999979	8.71E-08
2.67872	0.999979	8.98E-08
2.69843	0.999979	9.25E-08
2.71828	0.999978	9.54E-08
2.73827	0.999978	9.83E-08
2.75842	0.999978	1.01E-07
2.77871	0.999977	1.04E-07
2.79915	0.999977	1.08E-07
2.81975	0.999977	1.11E-07
2.84048	0.999976	1.14E-07
2.86138	0.999976	1.18E-07
2.88243	0.999976	1.21E-07
2.90364	0.999975	1.25E-07
2.92499	0.999975	1.29E-07
2.94651	0.999974	1.33E-07
2.96819	0.999974	1.37E-07
2.99002	0.999974	1.41E-07
3.01202	0.999973	1.45E-07
3.03417	0.999973	1.49E-07
3.0565	0.999972	1.54E-07
3.07898	0.999972	1.59E-07
3.10163	0.999972	1.64E-07
3.12445	0.999971	1.68E-07
3.14744	0.999971	1.74E-07
3.17058	0.99997	1.79E-07
3.19391	0.99997	1.84E-07
3.21741	0.999969	1.90E-07
3.24108	0.999969	1.96E-07
3.26492	0.999968	2.02E-07
3.28893	0.999968	2.08E-07
3.31313	0.999968	2.14E-07
3.33751	0.999967	2.20E-07
3.36205	0.999967	2.27E-07
3.38678	0.999966	2.34E-07
3.4117	0.999966	2.41E-07
3.4368	0.999965	2.48E-07
3.46208	0.999965	2.56E-07
3.48755	0.999964	2.63E-07
3.51321	0.999963	2.71E-07
3.53905	0.999963	2.80E-07
3.56508	0.999962	2.88E-07
3.59131	0.999962	2.97E-07
3.61773	0.999961	3.06E-07
3.64434	0.999961	3.15E-07
3.67115	0.99996	3.24E-07
3.69816	0.999959	3.34E-07
3.72536	0.999959	3.44E-07
3.75276	0.999958	3.54E-07
3.78037	0.999958	3.65E-07
3.80818	0.999957	3.76E-07
3.83619	0.999956	3.87E-07
3.86441	0.999956	3.99E-07
3.89284	0.999955	4.11E-07
3.92148	0.999954	4.23E-07
3.95033	0.999954	4.36E-07
3.97939	0.999953	4.49E-07
4.00867	0.999952	4.62E-07
4.03815	0.999952	4.76E-07
4.06787	0.999951	4.91E-07
4.09778	0.99995	5.05E-07
4.12793	0.999949	5.20E-07
4.1583	0.999949	5.36E-07
4.18888	0.999948	5.52E-07
4.21971	0.999947	5.68E-07
4.25074	0.999946	5.85E-07
4.28201	0.999946	6.03E-07
4.31352	0.999945	6.21E-07
4.34524	0.999944	6.39E-07
4.37721	0.999943	6.58E-07
4.4094	0.999942	6.78E-07
4.44185	0.999941	6.98E-07
4.47452	0.999941	7.19E-07
4.50743	0.99994	7.40E-07
4.54059	0.999939	7.63E-07
4.574	0.999938	7.85E-07
4.60765	0.999937	8.09E-07
4.64153	0.999936	8.33E-07
4.67568	0.999935	8.57E-07
4.71007	0.999934	8.83E-07
4.74474	0.999933	9.09E-07
4.77964	0.999932	9.36E-07
4.81479	0.999931	9.64E-07
4.85021	0.99993	9.93E-07
4.88589	0.999929	1.02E-06
4.92183	0.999928	1.05E-06
4.95805	0.999927	1.08E-06
4.99452	0.999926	1.12E-06
5.03127	0.999925	1.15E-06
5.06827	0.999923	1.18E-06
5.10555	0.999922	1.22E-06
5.14312	0.999921	1.25E-06
5.18094	0.99992	1.29E-06
5.21907	0.999919	1.33E-06
5.25744	0.999918	1.37E-06
5.29612	0.999916	1.41E-06
5.33509	0.999915	1.45E-06
5.37434	0.999914	1.49E-06
5.41388	0.999913	1.54E-06
5.4537	0.999911	1.58E-06
5.49381	0.99991	1.63E-06
5.53423	0.999909	1.68E-06
5.57494	0.999907	1.73E-06
5.61595	0.999906	1.78E-06
5.65726	0.999904	1.83E-06
5.69889	0.999903	1.89E-06
5.7408	0.999901	1.94E-06
5.78303	0.9999	2.00E-06
5.82558	0.999898	2.06E-06
5.86843	0.999897	2.12E-06
5.91161	0.999895	2.18E-06
5.95508	0.999894	2.24E-06
5.99891	0.999892	2.31E-06
6.04303	0.999891	2.38E-06
6.08748	0.999889	2.45E-06
6.13228	0.999887	2.52E-06
6.17738	0.999886	2.59E-06
6.22283	0.999884	2.67E-06
6.26861	0.999882	2.75E-06
6.31472	0.99988	2.83E-06
6.36118	0.999879	2.91E-06
6.40796	0.999877	2.99E-06
6.45511	0.999875	3.08E-06
6.50257	0.999873	3.17E-06
6.55043	0.999871	3.27E-06
6.59861	0.999869	3.36E-06
6.64715	0.999867	3.46E-06
6.69605	0.999865	3.56E-06
6.7453	0.999863	3.67E-06
6.79491	0.999861	3.77E-06
6.84492	0.999859	3.88E-06
6.89529	0.999857	4.00E-06
6.94601	0.999855	4.11E-06
6.99709	0.999853	4.23E-06
7.04856	0.999851	4.36E-06
7.1004	0.999848	4.49E-06
7.15267	0.999846	4.62E-06
7.20525	0.999844	4.75E-06
7.25827	0.999841	4.89E-06
7.31165	0.999839	5.03E-06
7.36547	0.999837	5.18E-06
7.41964	0.999834	5.33E-06
7.47421	0.999832	5.48E-06
7.52918	0.999829	5.64E-06
7.58459	0.999827	5.81E-06
7.6404	0.999824	5.98E-06
7.69661	0.999821	6.15E-06
7.75321	0.999819	6.33E-06
7.81026	0.999816	6.51E-06
7.8677	0.999813	6.70E-06
7.92559	0.99981	6.90E-06
7.98388	0.999807	7.10E-06
8.04261	0.999805	7.30E-06
8.10178	0.999802	7.52E-06
8.16136	0.999799	7.74E-06
8.22143	0.999796	7.96E-06
8.2819	0.999793	8.19E-06
8.34281	0.999789	8.43E-06
8.40417	0.999786	8.67E-06
8.46603	0.999783	8.92E-06
8.52829	0.99978	9.18E-06
8.59105	0.999776	9.44E-06
8.6542	0.999773	9.72E-06
8.71791	0.99977	1.00E-05
8.78201	0.999766	1.03E-05
8.84661	0.999763	1.06E-05
8.91173	0.999759	1.09E-05
8.97723	0.999756	1.12E-05
9.0433	0.999752	1.15E-05
9.10981	0.999748	1.19E-05
9.17684	0.999744	1.22E-05
9.24437	0.999741	1.25E-05
9.31235	0.999737	1.29E-05
9.38084	0.999733	1.33E-05
9.44984	0.999729	1.37E-05
9.51935	0.999725	1.41E-05
9.58944	0.99972	1.45E-05
9.65998	0.999716	1.49E-05
9.73102	0.999712	1.53E-05
9.80257	0.999708	1.57E-05
9.87471	0.999703	1.62E-05
9.94737	0.999699	1.67E-05
10.0205	0.999694	1.71E-05
10.0942	0.99969	1.76E-05
10.1685	0.999685	1.81E-05
10.2433	0.99968	1.86E-05
10.3187	0.999675	1.92E-05
10.3946	0.999671	1.97E-05
10.471	0.999666	2.03E-05
10.5481	0.999661	2.09E-05
10.6256	0.999656	2.15E-05
10.7038	0.99965	2.21E-05
10.7826	0.999645	2.27E-05
10.8619	0.99964	2.34E-05
10.9418	0.999634	2.40E-05
11.0223	0.999629	2.47E-05
11.1033	0.999623	2.54E-05
11.185	0.999618	2.61E-05
11.2673	0.999612	2.69E-05
11.3502	0.999606	2.77E-05
11.4337	0.9996	2.84E-05
11.5178	0.999594	2.93E-05
11.6025	0.999588	3.01E-05
11.6878	0.999582	3.10E-05
11.7739	0.999576	3.18E-05
11.8605	0.999569	3.27E-05
11.9477	0.999563	3.37E-05
12.0356	0.999556	3.46E-05
12.1241	0.99955	3.56E-05
12.2133	0.999543	3.66E-05
12.3031	0.999536	3.76E-05
12.3937	0.999529	3.87E-05
12.4849	0.999522	3.98E-05
12.5767	0.999515	4.09E-05
12.6692	0.999508	4.21E-05
12.7624	0.999501	4.32E-05
12.8563	0.999493	4.45E-05
12.9509	0.999485	4.57E-05
13.0462	0.999478	4.70E-05
13.1421	0.99947	4.83E-05
13.2388	0.999462	4.97E-05
13.3362	0.999454	5.11E-05
13.4343	0.999446	5.25E-05
13.5331	0.999438	5.40E-05
13.6327	0.999429	5.55E-05
13.733	0.999421	5.70E-05
13.834	0.999412	5.86E-05
13.9358	0.999404	6.02E-05
14.0383	0.999395	6.19E-05
14.1416	0.999386	6.37E-05
14.2456	0.999377	6.54E-05
14.3504	0.999368	6.73E-05
14.456	0.999358	6.92E-05
14.5623	0.999349	7.11E-05
14.6694	0.999339	7.31E-05
14.7773	0.999329	7.51E-05
14.8861	0.999319	7.72E-05
14.9956	0.999309	7.94E-05
15.1059	0.999299	8.16E-05
15.217	0.999289	8.39E-05
15.3289	0.999279	8.62E-05
15.4417	0.999268	8.86E-05
15.5553	0.999258	9.11E-05
15.6697	0.999247	9.36E-05
15.785	0.999236	9.63E-05
15.9011	0.999225	9.89E-05
16.0181	0.999216	0.000101689
16.0238	0.999216	0.000101191
16.05	0.999212	9.99E-05
16.0756	0.999208	9.98E-05
16.1007	0.999205	0.000103907
16.1259	0.999203	0.000102259
16.1512	0.999201	0.000105453
16.1761	0.9992	0.00010392
16.2011	0.999197	0.000103166
16.2264	0.999194	0.000103907
16.2515	0.999191	0.000105367
16.276	0.999189	0.000104775
16.3013	0.999185	0.000104684
16.3265	0.999181	0.000107295
16.3512	0.999181	0.000111743
16.3766	0.99918	0.000108871
16.401	0.999177	0.000108759
16.426	0.999173	0.000107774
16.4515	0.999169	0.000109811
16.4764	0.999168	0.000115151
16.5011	0.999169	0.000113307
16.5263	0.999165	0.000109658
16.5515	0.999161	0.000112989
16.5763	0.999159	0.00011133
16.6013	0.999154	0.000113251
16.6264	0.999152	0.000117006
16.6512	0.999152	0.000117396
16.6763	0.99915	0.00011466
16.7013	0.999146	0.000116761
16.7262	0.999143	0.000117688
16.7512	0.999141	0.000119193
16.7765	0.99914	0.000119109
16.8012	0.999137	0.000119577
16.8264	0.999135	0.000119053
16.8514	0.999132	0.000120559
16.876	0.999129	0.000118558
16.9015	0.999125	0.000120764
16.9262	0.999124	0.000124072
16.9512	0.999121	0.000121059
16.976	0.999117	0.000123943
17.0015	0.999115	0.000125105
17.0265	0.999114	0.000126601
17.0514	0.999112	0.000125582
17.0764	0.999109	0.000127814
17.1016	0.999108	0.000126646
17.1263	0.999104	0.000126441
17.1514	0.999102	0.000128246
17.1762	0.999099	0.000127064
17.2012	0.999096	0.00012803
17.2264	0.999093	0.000129533
17.2511	0.99909	0.000130058
17.2764	0.999088	0.00013154
17.3016	0.999086	0.000130836
17.3262	0.999083	0.000131703
17.3512	0.99908	0.000132395
17.3765	0.999077	0.000132914
17.4012	0.999075	0.000134612
17.4261	0.999072	0.000135253
17.4514	0.999071	0.000136325
17.4762	0.999069	0.000135851
17.5013	0.999066	0.000135771
17.5262	0.999062	0.000135338
17.5514	0.999059	0.000138289
17.576	0.999057	0.000138395
17.6015	0.999054	0.000137945
17.6263	0.999051	0.000140532
17.6509	0.999049	0.00014046
17.6764	0.999046	0.000141444
17.7015	0.999043	0.000142897
17.7261	0.999042	0.000143643
17.7514	0.999039	0.000142822
17.7765	0.999036	0.000143945
17.801	0.999033	0.000142528
17.8264	0.999029	0.000145386
17.8513	0.999027	0.000146054
17.8763	0.999025	0.000148228
17.9015	0.999023	0.000146954
17.9265	0.999021	0.00014866
17.9515	0.999018	0.000147082
17.9762	0.999014	0.000148057
18.0012	0.999011	0.000149353
18.0263	0.999008	0.000151357
18.0511	0.999006	0.000150734
18.0765	0.999002	0.000151396
18.101	0.999	0.000154066
18.1265	0.998998	0.000153091
18.1516	0.998994	0.000155154
18.1763	0.998993	0.000156627
18.2014	0.998991	0.000155413
18.2265	0.998987	0.000155056
18.251	0.998984	0.000158445
18.2762	0.998983	0.000158287
18.3013	0.998979	0.00015671
18.3264	0.998976	0.000160561
18.3516	0.998974	0.000158429
18.3763	0.998969	0.000158149
18.4014	0.998966	0.000162131
18.4259	0.998964	0.000163639
18.4511	0.998963	0.000164772
18.4764	0.998961	0.000163301
18.5013	0.998956	0.000162128
18.5263	0.998953	0.00016622
18.5515	0.998951	0.000165754
18.5765	0.998948	0.000166702
18.6013	0.998944	0.000167485
18.6263	0.998943	0.000170498
18.6515	0.998941	0.000168693
18.6763	0.998937	0.000168655
18.7012	0.998933	0.000170028
18.7264	0.99893	0.000173382
18.7511	0.998929	0.000174406
18.7763	0.998927	0.000172658
18.8016	0.998923	0.000173755
18.826	0.99892	0.000175523
18.8515	0.998917	0.00017518
18.8765	0.998914	0.000176642
18.9011	0.998911	0.000177699
18.9263	0.998909	0.000179155
18.9515	0.998907	0.000178285
18.9763	0.998903	0.000179862
19.0015	0.9989	0.000180707
19.0262	0.998899	0.000182747
19.0512	0.998896	0.00017955
19.0766	0.99889	0.000180577
19.1013	0.998886	0.000184313
19.1263	0.998886	0.000187277
19.1512	0.998883	0.000185285
19.1762	0.998881	0.00018893
19.2013	0.998879	0.000186314
19.2263	0.998875	0.000188272
19.2513	0.998871	0.000187268
19.2762	0.998868	0.000191325
19.301	0.998866	0.000192163
19.3264	0.998863	0.000191803
19.3511	0.99886	0.000193476
19.3764	0.998858	0.00019528
19.4015	0.998856	0.000195025
19.426	0.998853	0.000195845
19.4512	0.99885	0.000194983
19.4762	0.998845	0.000196731
19.5011	0.998845	0.000201023
19.5264	0.998843	0.000196744
19.5514	0.998838	0.000198514
19.576	0.998834	0.000198825
19.6013	0.998831	0.00020086
19.6264	0.998827	0.000201233
19.6513	0.998824	0.000205005
19.6761	0.998822	0.000204733
19.7015	0.998819	0.000206091
19.7265	0.998818	0.000210199
19.751	0.998816	0.000207483
19.7765	0.998812	0.000208206
19.8011	0.998809	0.000210237
19.8263	0.998806	0.000210769
19.8514	0.998804	0.000212887
19.876	0.998802	0.000212902
19.9013	0.998798	0.000212795
19.9267	0.998795	0.000216005
19.9509	0.998794	0.000215584
19.9763	0.99879	0.000214396
20.0014	0.998786	0.000216329
20.026	0.998785	0.00022026
20.051	0.998784	0.000217438
20.0762	0.998778	0.000214331
20.1012	0.998773	0.000221348
20.1264	0.998772	0.000220899
20.1513	0.998769	0.000221156
20.1763	0.998766	0.000223627
20.2012	0.998764	0.000223912
20.2264	0.99876	0.000223541
20.2513	0.998756	0.000225407
20.2763	0.998755	0.000228141
20.3015	0.998753	0.000226261
20.3262	0.998748	0.000226496
20.3513	0.998744	0.00022895
20.3764	0.998742	0.000231557
20.4013	0.998739	0.000230765
20.4263	0.998737	0.000235069
20.4515	0.998734	0.000231086
20.4762	0.99873	0.000235087
20.5014	0.998728	0.000235913
20.5262	0.998725	0.000235453
20.5514	0.99872	0.00023618
20.5766	0.998718	0.000243016
20.6013	0.998719	0.000240298
20.6263	0.998714	0.000239114
20.6514	0.99871	0.000241282
20.6761	0.998707	0.000242028
20.7016	0.998704	0.000243425
20.7263	0.998702	0.000244174
20.7513	0.998699	0.000244411
20.7765	0.998695	0.000244595
20.8012	0.998691	0.000247411
20.8264	0.998689	0.000248945
20.8513	0.998685	0.000248944
20.8764	0.998682	0.000253962
20.9015	0.998682	0.000254101
20.9262	0.998679	0.000251505
20.9512	0.998675	0.000255375
20.9761	0.998674	0.000256208
21.0014	0.998671	0.00025547
21.0264	0.998666	0.000254576
21.0513	0.998663	0.000259237
21.0765	0.998662	0.000258135
21.1014	0.998658	0.000257812
21.1262	0.998653	0.000259536
21.1512	0.998649	0.000261901
21.1763	0.998648	0.000266641
21.2013	0.998648	0.000264373
21.2262	0.998644	0.000264464
21.2512	0.99864	0.000264175
21.2764	0.998636	0.000266743
21.3014	0.998633	0.000268236
21.3263	0.998631	0.000271755
21.3511	0.99863	0.000272338
21.376	0.998628	0.000271743
21.4015	0.998623	0.000270081
21.4261	0.99862	0.000274592
21.4511	0.998619	0.000275083
21.4764	0.998616	0.000273675
21.5015	0.998613	0.000276799
21.526	0.998609	0.000273956
21.5514	0.998606	0.000281753
21.5761	0.998611	0.000283484
21.5969	0.998609	0.000270536
21.6494	0.998594	0.000274534
21.7003	0.998585	0.000276418
21.7511	0.998578	0.000281993
21.8014	0.998571	0.000283219
21.8515	0.998565	0.000287297
